File Name,63099SP.002
File Type,GPC Single Channel Chromatogram
Version,2
Size,5982
Date,Wed Jun 30 15:08:32 1999
Number of Points,1423
Numerator,1
Denominator,12288
Offset,0
Start Delay (Mins),0
Logging Frequency,1
Sample Name,Taktene 1mg/ml, 100ul inj.
Method Number,55
Run Type,Unknown
Kvalue * 10e5,    14.1
Alpha,     0.7
Number of timed events,0
Data Values Table
Time (Mins),Normalized Value
    0.0000,  1.2877
    0.0167,  1.2871
    0.0333,  1.2874
    0.0500,  1.2878
    0.0667,  1.2878
    0.0833,  1.2879
    0.1000,  1.2882
    0.1167,  1.2881
    0.1333,  1.2886
    0.1500,  1.2889
    0.1667,  1.2891
    0.1833,  1.2888
    0.2000,  1.2888
    0.2167,  1.2890
    0.2333,  1.2891
    0.2500,  1.2904
    0.2667,  1.2903
    0.2833,  1.2896
    0.3000,  1.2901
    0.3167,  1.2896
    0.3333,  1.2895
    0.3500,  1.2902
    0.3667,  1.2903
    0.3833,  1.2901
    0.4000,  1.2898
    0.4167,  1.2900
    0.4333,  1.2908
    0.4500,  1.2906
    0.4667,  1.2901
    0.4833,  1.2900
    0.5000,  1.2894
    0.5167,  1.2888
    0.5333,  1.2889
    0.5500,  1.2896
    0.5667,  1.2899
    0.5833,  1.2901
    0.6000,  1.2898
    0.6167,  1.2895
    0.6333,  1.2893
    0.6500,  1.2890
    0.6667,  1.2888
    0.6833,  1.2884
    0.7000,  1.2881
    0.7167,  1.2878
    0.7333,  1.2882
    0.7500,  1.2876
    0.7667,  1.2872
    0.7833,  1.2884
    0.8000,  1.2887
    0.8167,  1.2879
    0.8333,  1.2879
    0.8500,  1.2880
    0.8667,  1.2882
    0.8833,  1.2892
    0.9000,  1.2891
    0.9167,  1.2885
    0.9333,  1.2887
    0.9500,  1.2896
    0.9667,  1.2895
    0.9833,  1.2884
    1.0000,  1.2892
    1.0167,  1.2898
    1.0333,  1.2897
    1.0500,  1.2897
    1.0667,  1.2885
    1.0833,  1.2880
    1.1000,  1.2882
    1.1167,  1.2885
    1.1333,  1.2892
    1.1500,  1.2896
    1.1667,  1.2899
    1.1833,  1.2904
    1.2000,  1.2902
    1.2167,  1.2896
    1.2333,  1.2894
    1.2500,  1.2894
    1.2667,  1.2893
    1.2833,  1.2890
    1.3000,  1.2884
    1.3167,  1.2873
    1.3333,  1.2863
    1.3500,  1.2865
    1.3667,  1.2877
    1.3833,  1.2878
    1.4000,  1.2869
    1.4167,  1.2874
    1.4333,  1.2879
    1.4500,  1.2877
    1.4667,  1.2869
    1.4833,  1.2869
    1.5000,  1.2878
    1.5167,  1.2887
    1.5333,  1.2891
    1.5500,  1.2887
    1.5667,  1.2891
    1.5833,  1.2891
    1.6000,  1.2894
    1.6167,  1.2892
    1.6333,  1.2887
    1.6500,  1.2896
    1.6667,  1.2899
    1.6833,  1.2894
    1.7000,  1.2889
    1.7167,  1.2896
    1.7333,  1.2901
    1.7500,  1.2896
    1.7667,  1.2893
    1.7833,  1.2896
    1.8000,  1.2892
    1.8167,  1.2880
    1.8333,  1.2880
    1.8500,  1.2887
    1.8667,  1.2891
    1.8833,  1.2894
    1.9000,  1.2894
    1.9167,  1.2887
    1.9333,  1.2889
    1.9500,  1.2899
    1.9667,  1.2900
    1.9833,  1.2904
    2.0000,  1.2908
    2.0167,  1.2904
    2.0333,  1.2900
    2.0500,  1.2896
    2.0667,  1.2888
    2.0833,  1.2888
    2.1000,  1.2889
    2.1167,  1.2894
    2.1333,  1.2906
    2.1500,  1.2904
    2.1667,  1.2904
    2.1833,  1.2908
    2.2000,  1.2911
    2.2167,  1.2912
    2.2333,  1.2907
    2.2500,  1.2906
    2.2667,  1.2905
    2.2833,  1.2903
    2.3000,  1.2900
    2.3167,  1.2897
    2.3333,  1.2900
    2.3500,  1.2900
    2.3667,  1.2897
    2.3833,  1.2892
    2.4000,  1.2888
    2.4167,  1.2887
    2.4333,  1.2882
    2.4500,  1.2878
    2.4667,  1.2877
    2.4833,  1.2878
    2.5000,  1.2881
    2.5167,  1.2876
    2.5333,  1.2869
    2.5500,  1.2870
    2.5667,  1.2869
    2.5833,  1.2873
    2.6000,  1.2882
    2.6167,  1.2880
    2.6333,  1.2878
    2.6500,  1.2890
    2.6667,  1.2896
    2.6833,  1.2899
    2.7000,  1.2904
    2.7167,  1.2908
    2.7333,  1.2910
    2.7500,  1.2906
    2.7667,  1.2909
    2.7833,  1.2908
    2.8000,  1.2901
    2.8167,  1.2894
    2.8333,  1.2896
    2.8500,  1.2899
    2.8667,  1.2896
    2.8833,  1.2899
    2.9000,  1.2909
    2.9167,  1.2912
    2.9333,  1.2900
    2.9500,  1.2890
    2.9667,  1.2892
    2.9833,  1.2900
    3.0000,  1.2902
    3.0167,  1.2891
    3.0333,  1.2888
    3.0500,  1.2894
    3.0667,  1.2896
    3.0833,  1.2895
    3.1000,  1.2891
    3.1167,  1.2900
    3.1333,  1.2909
    3.1500,  1.2903
    3.1667,  1.2892
    3.1833,  1.2888
    3.2000,  1.2891
    3.2167,  1.2882
    3.2333,  1.2880
    3.2500,  1.2878
    3.2667,  1.2869
    3.2833,  1.2874
    3.3000,  1.2882
    3.3167,  1.2886
    3.3333,  1.2886
    3.3500,  1.2886
    3.3667,  1.2893
    3.3833,  1.2904
    3.4000,  1.2903
    3.4167,  1.2901
    3.4333,  1.2901
    3.4500,  1.2898
    3.4667,  1.2906
    3.4833,  1.2909
    3.5000,  1.2910
    3.5167,  1.2909
    3.5333,  1.2909
    3.5500,  1.2913
    3.5667,  1.2910
    3.5833,  1.2915
    3.6000,  1.2917
    3.6167,  1.2909
    3.6333,  1.2904
    3.6500,  1.2904
    3.6667,  1.2902
    3.6833,  1.2896
    3.7000,  1.2894
    3.7167,  1.2891
    3.7333,  1.2887
    3.7500,  1.2889
    3.7667,  1.2893
    3.7833,  1.2893
    3.8000,  1.2892
    3.8167,  1.2886
    3.8333,  1.2883
    3.8500,  1.2885
    3.8667,  1.2885
    3.8833,  1.2883
    3.9000,  1.2878
    3.9167,  1.2884
    3.9333,  1.2891
    3.9500,  1.2888
    3.9667,  1.2893
    3.9833,  1.2897
    4.0000,  1.2893
    4.0167,  1.2893
    4.0333,  1.2892
    4.0500,  1.2885
    4.0667,  1.2881
    4.0833,  1.2880
    4.1000,  1.2885
    4.1167,  1.2893
    4.1333,  1.2893
    4.1500,  1.2890
    4.1667,  1.2887
    4.1833,  1.2886
    4.2000,  1.2895
    4.2167,  1.2901
    4.2333,  1.2904
    4.2500,  1.2913
    4.2667,  1.2912
    4.2833,  1.2902
    4.3000,  1.2895
    4.3167,  1.2887
    4.3333,  1.2884
    4.3500,  1.2882
    4.3667,  1.2876
    4.3833,  1.2880
    4.4000,  1.2883
    4.4167,  1.2881
    4.4333,  1.2887
    4.4500,  1.2888
    4.4667,  1.2889
    4.4833,  1.2890
    4.5000,  1.2890
    4.5167,  1.2885
    4.5333,  1.2891
    4.5500,  1.2900
    4.5667,  1.2882
    4.5833,  1.2848
    4.6000,  1.2811
    4.6167,  1.2779
    4.6333,  1.2747
    4.6500,  1.2714
    4.6667,  1.2690
    4.6833,  1.2674
    4.7000,  1.2653
    4.7167,  1.2633
    4.7333,  1.2619
    4.7500,  1.2611
    4.7667,  1.2613
    4.7833,  1.2619
    4.8000,  1.2631
    4.8167,  1.2683
    4.8333,  1.2803
    4.8500,  1.2984
    4.8667,  1.3186
    4.8833,  1.3340
    4.9000,  1.3416
    4.9167,  1.3419
    4.9333,  1.3379
    4.9500,  1.3325
    4.9667,  1.3271
    4.9833,  1.3219
    5.0000,  1.3168
    5.0167,  1.3122
    5.0333,  1.3081
    5.0500,  1.3047
    5.0667,  1.3023
    5.0833,  1.3008
    5.1000,  1.3000
    5.1167,  1.2988
    5.1333,  1.2981
    5.1500,  1.2979
    5.1667,  1.2979
    5.1833,  1.2983
    5.2000,  1.2985
    5.2167,  1.2998
    5.2333,  1.3000
    5.2500,  1.2998
    5.2667,  1.3000
    5.2833,  1.2997
    5.3000,  1.2997
    5.3167,  1.3003
    5.3333,  1.3003
    5.3500,  1.2998
    5.3667,  1.3002
    5.3833,  1.3001
    5.4000,  1.2996
    5.4167,  1.2994
    5.4333,  1.2991
    5.4500,  1.2983
    5.4667,  1.2979
    5.4833,  1.2980
    5.5000,  1.2977
    5.5167,  1.2970
    5.5333,  1.2963
    5.5500,  1.2963
    5.5667,  1.2965
    5.5833,  1.2972
    5.6000,  1.2970
    5.6167,  1.2960
    5.6333,  1.2956
    5.6500,  1.2953
    5.6667,  1.2951
    5.6833,  1.2952
    5.7000,  1.2949
    5.7167,  1.2941
    5.7333,  1.2944
    5.7500,  1.2945
    5.7667,  1.2939
    5.7833,  1.2938
    5.8000,  1.2935
    5.8167,  1.2928
    5.8333,  1.2928
    5.8500,  1.2927
    5.8667,  1.2930
    5.8833,  1.2924
    5.9000,  1.2917
    5.9167,  1.2919
    5.9333,  1.2918
    5.9500,  1.2922
    5.9667,  1.2923
    5.9833,  1.2915
    6.0000,  1.2913
    6.0167,  1.2920
    6.0333,  1.2920
    6.0500,  1.2915
    6.0667,  1.2913
    6.0833,  1.2920
    6.1000,  1.2925
    6.1167,  1.2931
    6.1333,  1.2936
    6.1500,  1.2933
    6.1667,  1.2924
    6.1833,  1.2918
    6.2000,  1.2917
    6.2167,  1.2922
    6.2333,  1.2925
    6.2500,  1.2925
    6.2667,  1.2917
    6.2833,  1.2910
    6.3000,  1.2914
    6.3167,  1.2916
    6.3333,  1.2909
    6.3500,  1.2911
    6.3667,  1.2909
    6.3833,  1.2903
    6.4000,  1.2902
    6.4167,  1.2904
    6.4333,  1.2916
    6.4500,  1.2922
    6.4667,  1.2922
    6.4833,  1.2919
    6.5000,  1.2913
    6.5167,  1.2906
    6.5333,  1.2911
    6.5500,  1.2913
    6.5667,  1.2905
    6.5833,  1.2905
    6.6000,  1.2904
    6.6167,  1.2900
    6.6333,  1.2900
    6.6500,  1.2906
    6.6667,  1.2913
    6.6833,  1.2913
    6.7000,  1.2911
    6.7167,  1.2911
    6.7333,  1.2908
    6.7500,  1.2904
    6.7667,  1.2900
    6.7833,  1.2899
    6.8000,  1.2901
    6.8167,  1.2907
    6.8333,  1.2910
    6.8500,  1.2908
    6.8667,  1.2911
    6.8833,  1.2907
    6.9000,  1.2904
    6.9167,  1.2905
    6.9333,  1.2907
    6.9500,  1.2911
    6.9667,  1.2913
    6.9833,  1.2905
    7.0000,  1.2905
    7.0167,  1.2909
    7.0333,  1.2906
    7.0500,  1.2902
    7.0667,  1.2900
    7.0833,  1.2897
    7.1000,  1.2896
    7.1167,  1.2902
    7.1333,  1.2900
    7.1500,  1.2887
    7.1667,  1.2886
    7.1833,  1.2887
    7.2000,  1.2885
    7.2167,  1.2886
    7.2333,  1.2885
    7.2500,  1.2882
    7.2667,  1.2877
    7.2833,  1.2885
    7.3000,  1.2895
    7.3167,  1.2891
    7.3333,  1.2889
    7.3500,  1.2898
    7.3667,  1.2902
    7.3833,  1.2908
    7.4000,  1.2909
    7.4167,  1.2904
    7.4333,  1.2900
    7.4500,  1.2889
    7.4667,  1.2882
    7.4833,  1.2875
    7.5000,  1.2873
    7.5167,  1.2882
    7.5333,  1.2883
    7.5500,  1.2881
    7.5667,  1.2880
    7.5833,  1.2880
    7.6000,  1.2882
    7.6167,  1.2887
    7.6333,  1.2887
    7.6500,  1.2883
    7.6667,  1.2887
    7.6833,  1.2886
    7.7000,  1.2887
    7.7167,  1.2891
    7.7333,  1.2895
    7.7500,  1.2899
    7.7667,  1.2903
    7.7833,  1.2904
    7.8000,  1.2904
    7.8167,  1.2906
    7.8333,  1.2906
    7.8500,  1.2903
    7.8667,  1.2898
    7.8833,  1.2900
    7.9000,  1.2904
    7.9167,  1.2906
    7.9333,  1.2903
    7.9500,  1.2905
    7.9667,  1.2907
    7.9833,  1.2904
    8.0000,  1.2909
    8.0167,  1.2913
    8.0333,  1.2912
    8.0500,  1.2913
    8.0667,  1.2916
    8.0833,  1.2916
    8.1000,  1.2910
    8.1167,  1.2912
    8.1333,  1.2912
    8.1500,  1.2907
    8.1667,  1.2904
    8.1833,  1.2901
    8.2000,  1.2898
    8.2167,  1.2891
    8.2333,  1.2887
    8.2500,  1.2882
    8.2667,  1.2885
    8.2833,  1.2894
    8.3000,  1.2905
    8.3167,  1.2910
    8.3333,  1.2908
    8.3500,  1.2908
    8.3667,  1.2904
    8.3833,  1.2896
    8.4000,  1.2890
    8.4167,  1.2895
    8.4333,  1.2899
    8.4500,  1.2906
    8.4667,  1.2903
    8.4833,  1.2891
    8.5000,  1.2900
    8.5167,  1.2904
    8.5333,  1.2904
    8.5500,  1.2909
    8.5667,  1.2910
    8.5833,  1.2909
    8.6000,  1.2914
    8.6167,  1.2920
    8.6333,  1.2909
    8.6500,  1.2901
    8.6667,  1.2900
    8.6833,  1.2891
    8.7000,  1.2895
    8.7167,  1.2897
    8.7333,  1.2896
    8.7500,  1.2902
    8.7667,  1.2905
    8.7833,  1.2909
    8.8000,  1.2911
    8.8167,  1.2909
    8.8333,  1.2905
    8.8500,  1.2904
    8.8667,  1.2911
    8.8833,  1.2919
    8.9000,  1.2921
    8.9167,  1.2929
    8.9333,  1.2926
    8.9500,  1.2926
    8.9667,  1.2936
    8.9833,  1.2945
    9.0000,  1.2961
    9.0167,  1.2979
    9.0333,  1.2996
    9.0500,  1.3015
    9.0667,  1.3045
    9.0833,  1.3086
    9.1000,  1.3135
    9.1167,  1.3192
    9.1333,  1.3245
    9.1500,  1.3315
    9.1667,  1.3408
    9.1833,  1.3499
    9.2000,  1.3597
    9.2167,  1.3702
    9.2333,  1.3814
    9.2500,  1.3936
    9.2667,  1.4076
    9.2833,  1.4228
    9.3000,  1.4399
    9.3167,  1.4597
    9.3333,  1.4801
    9.3500,  1.5023
    9.3667,  1.5271
    9.3833,  1.5540
    9.4000,  1.5832
    9.4167,  1.6133
    9.4333,  1.6424
    9.4500,  1.6723
    9.4667,  1.7045
    9.4833,  1.7383
    9.5000,  1.7721
    9.5167,  1.8073
    9.5333,  1.8417
    9.5500,  1.8723
    9.5667,  1.9041
    9.5833,  1.9422
    9.6000,  1.9832
    9.6167,  2.0213
    9.6333,  2.0600
    9.6500,  2.0989
    9.6667,  2.1368
    9.6833,  2.1764
    9.7000,  2.2165
    9.7167,  2.2545
    9.7333,  2.2886
    9.7500,  2.3125
    9.7667,  2.3376
    9.7833,  2.3704
    9.8000,  2.4018
    9.8167,  2.4413
    9.8333,  2.4866
    9.8500,  2.5305
    9.8667,  2.5708
    9.8833,  2.6123
    9.9000,  2.6590
    9.9167,  2.7112
    9.9333,  2.7686
    9.9500,  2.8282
    9.9667,  2.8961
    9.9833,  2.9700
   10.0000,  3.0423
   10.0167,  3.1136
   10.0333,  3.1897
   10.0500,  3.2716
   10.0667,  3.3561
   10.0833,  3.4446
   10.1000,  3.5380
   10.1167,  3.6270
   10.1333,  3.7275
   10.1500,  3.8499
   10.1667,  3.9705
   10.1833,  4.0895
   10.2000,  4.2233
   10.2167,  4.3679
   10.2333,  4.5209
   10.2500,  4.6839
   10.2667,  4.8538
   10.2833,  5.0334
   10.3000,  5.2209
   10.3167,  5.4157
   10.3333,  5.6120
   10.3500,  5.8100
   10.3667,  6.0270
   10.3833,  6.2693
   10.4000,  6.5286
   10.4167,  6.7826
   10.4333,  7.0155
   10.4500,  7.2423
   10.4667,  7.4833
   10.4833,  7.7352
   10.5000,  7.9864
   10.5167,  8.2304
   10.5333,  8.4719
   10.5500,  8.7250
   10.5667,  8.9865
   10.5833,  9.2549
   10.6000,  9.5310
   10.6167,  9.8185
   10.6333, 10.1009
   10.6500, 10.3558
   10.6667, 10.5796
   10.6833, 10.8015
   10.7000, 11.0583
   10.7167, 11.3289
   10.7333, 11.5936
   10.7500, 11.8634
   10.7667, 12.1272
   10.7833, 12.3749
   10.8000, 12.6184
   10.8167, 12.8722
   10.8333, 13.1306
   10.8500, 13.3804
   10.8667, 13.6114
   10.8833, 13.8325
   10.9000, 14.0463
   10.9167, 14.2378
   10.9333, 14.3973
   10.9500, 14.5430
   10.9667, 14.6975
   10.9833, 14.8540
   11.0000, 15.0063
   11.0167, 15.1624
   11.0333, 15.3105
   11.0500, 15.4548
   11.0667, 15.6032
   11.0833, 15.7400
   11.1000, 15.8735
   11.1167, 16.0014
   11.1333, 16.0973
   11.1500, 16.1609
   11.1667, 16.2039
   11.1833, 16.2467
   11.2000, 16.3168
   11.2167, 16.3931
   11.2333, 16.4128
   11.2500, 16.3869
   11.2667, 16.3770
   11.2833, 16.3687
   11.3000, 16.3520
   11.3167, 16.3566
   11.3333, 16.3672
   11.3500, 16.3673
   11.3667, 16.3790
   11.3833, 16.3984
   11.4000, 16.4259
   11.4167, 16.4596
   11.4333, 16.4613
   11.4500, 16.4412
   11.4667, 16.4267
   11.4833, 16.4272
   11.5000, 16.4624
   11.5167, 16.5076
   11.5333, 16.5111
   11.5500, 16.4837
   11.5667, 16.4529
   11.5833, 16.4213
   11.6000, 16.3875
   11.6167, 16.3374
   11.6333, 16.2649
   11.6500, 16.1923
   11.6667, 16.1392
   11.6833, 16.1024
   11.7000, 16.0512
   11.7167, 15.9696
   11.7333, 15.8786
   11.7500, 15.8035
   11.7667, 15.7405
   11.7833, 15.6543
   11.8000, 15.5535
   11.8167, 15.4635
   11.8333, 15.3691
   11.8500, 15.2648
   11.8667, 15.1519
   11.8833, 15.0387
   11.9000, 14.9340
   11.9167, 14.8095
   11.9333, 14.6675
   11.9500, 14.5413
   11.9667, 14.4254
   11.9833, 14.2975
   12.0000, 14.1684
   12.0167, 14.0313
   12.0333, 13.8729
   12.0500, 13.7086
   12.0667, 13.5361
   12.0833, 13.3517
   12.1000, 13.1746
   12.1167, 13.0207
   12.1333, 12.8835
   12.1500, 12.7414
   12.1667, 12.5933
   12.1833, 12.4621
   12.2000, 12.3436
   12.2167, 12.2122
   12.2333, 12.0579
   12.2500, 11.8835
   12.2667, 11.7036
   12.2833, 11.5316
   12.3000, 11.3736
   12.3167, 11.2202
   12.3333, 11.0649
   12.3500, 10.9125
   12.3667, 10.7646
   12.3833, 10.6069
   12.4000, 10.4302
   12.4167, 10.2549
   12.4333, 10.0830
   12.4500,  9.8913
   12.4667,  9.6956
   12.4833,  9.5009
   12.5000,  9.3111
   12.5167,  9.1487
   12.5333,  8.9972
   12.5500,  8.8257
   12.5667,  8.6366
   12.5833,  8.4517
   12.6000,  8.2779
   12.6167,  8.1086
   12.6333,  7.9342
   12.6500,  7.7558
   12.6667,  7.5754
   12.6833,  7.3932
   12.7000,  7.2262
   12.7167,  7.0682
   12.7333,  6.9002
   12.7500,  6.7282
   12.7667,  6.5628
   12.7833,  6.4077
   12.8000,  6.2614
   12.8167,  6.1176
   12.8333,  5.9727
   12.8500,  5.8312
   12.8667,  5.7016
   12.8833,  5.5815
   12.9000,  5.4637
   12.9167,  5.3477
   12.9333,  5.2381
   12.9500,  5.1290
   12.9667,  5.0142
   12.9833,  4.8992
   13.0000,  4.7855
   13.0167,  4.6715
   13.0333,  4.5627
   13.0500,  4.4664
   13.0667,  4.3724
   13.0833,  4.2664
   13.1000,  4.1575
   13.1167,  4.0550
   13.1333,  3.9564
   13.1500,  3.8546
   13.1667,  3.7506
   13.1833,  3.6526
   13.2000,  3.5631
   13.2167,  3.4715
   13.2333,  3.3772
   13.2500,  3.2904
   13.2667,  3.2104
   13.2833,  3.1378
   13.3000,  3.0735
   13.3167,  3.0163
   13.3333,  2.9634
   13.3500,  2.9106
   13.3667,  2.8581
   13.3833,  2.8040
   13.4000,  2.7480
   13.4167,  2.6965
   13.4333,  2.6449
   13.4500,  2.5894
   13.4667,  2.5356
   13.4833,  2.4867
   13.5000,  2.4402
   13.5167,  2.3980
   13.5333,  2.3619
   13.5500,  2.3258
   13.5667,  2.2952
   13.5833,  2.2646
   13.6000,  2.2283
   13.6167,  2.1920
   13.6333,  2.1579
   13.6500,  2.1245
   13.6667,  2.0920
   13.6833,  2.0624
   13.7000,  2.0323
   13.7167,  2.0037
   13.7333,  1.9793
   13.7500,  1.9561
   13.7667,  1.9317
   13.7833,  1.9066
   13.8000,  1.8817
   13.8167,  1.8589
   13.8333,  1.8372
   13.8500,  1.8167
   13.8667,  1.7961
   13.8833,  1.7741
   13.9000,  1.7528
   13.9167,  1.7328
   13.9333,  1.7135
   13.9500,  1.6953
   13.9667,  1.6793
   13.9833,  1.6639
   14.0000,  1.6483
   14.0167,  1.6333
   14.0333,  1.6189
   14.0500,  1.6027
   14.0667,  1.5884
   14.0833,  1.5770
   14.1000,  1.5667
   14.1167,  1.5577
   14.1333,  1.5482
   14.1500,  1.5367
   14.1667,  1.5243
   14.1833,  1.5139
   14.2000,  1.5045
   14.2167,  1.4954
   14.2333,  1.4876
   14.2500,  1.4807
   14.2667,  1.4730
   14.2833,  1.4648
   14.3000,  1.4576
   14.3167,  1.4511
   14.3333,  1.4447
   14.3500,  1.4383
   14.3667,  1.4318
   14.3833,  1.4259
   14.4000,  1.4203
   14.4167,  1.4148
   14.4333,  1.4110
   14.4500,  1.4067
   14.4667,  1.4019
   14.4833,  1.3984
   14.5000,  1.3944
   14.5167,  1.3903
   14.5333,  1.3869
   14.5500,  1.3838
   14.5667,  1.3807
   14.5833,  1.3778
   14.6000,  1.3743
   14.6167,  1.3708
   14.6333,  1.3675
   14.6500,  1.3641
   14.6667,  1.3608
   14.6833,  1.3593
   14.7000,  1.3581
   14.7167,  1.3557
   14.7333,  1.3538
   14.7500,  1.3521
   14.7667,  1.3497
   14.7833,  1.3481
   14.8000,  1.3469
   14.8167,  1.3442
   14.8333,  1.3410
   14.8500,  1.3381
   14.8667,  1.3363
   14.8833,  1.3349
   14.9000,  1.3327
   14.9167,  1.3319
   14.9333,  1.3315
   14.9500,  1.3294
   14.9667,  1.3278
   14.9833,  1.3273
   15.0000,  1.3265
   15.0167,  1.3258
   15.0333,  1.3253
   15.0500,  1.3245
   15.0667,  1.3230
   15.0833,  1.3214
   15.1000,  1.3195
   15.1167,  1.3179
   15.1333,  1.3169
   15.1500,  1.3171
   15.1667,  1.3168
   15.1833,  1.3164
   15.2000,  1.3160
   15.2167,  1.3150
   15.2333,  1.3144
   15.2500,  1.3140
   15.2667,  1.3127
   15.2833,  1.3115
   15.3000,  1.3115
   15.3167,  1.3112
   15.3333,  1.3105
   15.3500,  1.3105
   15.3667,  1.3105
   15.3833,  1.3092
   15.4000,  1.3077
   15.4167,  1.3076
   15.4333,  1.3083
   15.4500,  1.3088
   15.4667,  1.3085
   15.4833,  1.3073
   15.5000,  1.3069
   15.5167,  1.3065
   15.5333,  1.3059
   15.5500,  1.3056
   15.5667,  1.3053
   15.5833,  1.3053
   15.6000,  1.3049
   15.6167,  1.3049
   15.6333,  1.3045
   15.6500,  1.3036
   15.6667,  1.3030
   15.6833,  1.3026
   15.7000,  1.3025
   15.7167,  1.3016
   15.7333,  1.3014
   15.7500,  1.3017
   15.7667,  1.3020
   15.7833,  1.3029
   15.8000,  1.3040
   15.8167,  1.3029
   15.8333,  1.3014
   15.8500,  1.3018
   15.8667,  1.3010
   15.8833,  1.3006
   15.9000,  1.3004
   15.9167,  1.2996
   15.9333,  1.2996
   15.9500,  1.2999
   15.9667,  1.3000
   15.9833,  1.2993
   16.0000,  1.2993
   16.0167,  1.2992
   16.0333,  1.2983
   16.0500,  1.2975
   16.0667,  1.2967
   16.0833,  1.2971
   16.1000,  1.2970
   16.1167,  1.2965
   16.1333,  1.2970
   16.1500,  1.2971
   16.1667,  1.2967
   16.1833,  1.2966
   16.2000,  1.2963
   16.2167,  1.2961
   16.2333,  1.2961
   16.2500,  1.2965
   16.2667,  1.2966
   16.2833,  1.2970
   16.3000,  1.2977
   16.3167,  1.2971
   16.3333,  1.2961
   16.3500,  1.2971
   16.3667,  1.2979
   16.3833,  1.2978
   16.4000,  1.2983
   16.4167,  1.2985
   16.4333,  1.2984
   16.4500,  1.2987
   16.4667,  1.2993
   16.4833,  1.2998
   16.5000,  1.3010
   16.5167,  1.3021
   16.5333,  1.3014
   16.5500,  1.3008
   16.5667,  1.3012
   16.5833,  1.3011
   16.6000,  1.3005
   16.6167,  1.3006
   16.6333,  1.3006
   16.6500,  1.2999
   16.6667,  1.2995
   16.6833,  1.2992
   16.7000,  1.2987
   16.7167,  1.2981
   16.7333,  1.2979
   16.7500,  1.2981
   16.7667,  1.2982
   16.7833,  1.2996
   16.8000,  1.3007
   16.8167,  1.3012
   16.8333,  1.3020
   16.8500,  1.3032
   16.8667,  1.3050
   16.8833,  1.3068
   16.9000,  1.3089
   16.9167,  1.3113
   16.9333,  1.3140
   16.9500,  1.3162
   16.9667,  1.3185
   16.9833,  1.3214
   17.0000,  1.3243
   17.0167,  1.3272
   17.0333,  1.3277
   17.0500,  1.3285
   17.0667,  1.3299
   17.0833,  1.3298
   17.1000,  1.3300
   17.1167,  1.3310
   17.1333,  1.3306
   17.1500,  1.3287
   17.1667,  1.3267
   17.1833,  1.3252
   17.2000,  1.3245
   17.2167,  1.3232
   17.2333,  1.3215
   17.2500,  1.3206
   17.2667,  1.3195
   17.2833,  1.3187
   17.3000,  1.3177
   17.3167,  1.3168
   17.3333,  1.3158
   17.3500,  1.3150
   17.3667,  1.3145
   17.3833,  1.3136
   17.4000,  1.3134
   17.4167,  1.3136
   17.4333,  1.3144
   17.4500,  1.3151
   17.4667,  1.3146
   17.4833,  1.3139
   17.5000,  1.3137
   17.5167,  1.3141
   17.5333,  1.3145
   17.5500,  1.3143
   17.5667,  1.3139
   17.5833,  1.3130
   17.6000,  1.3118
   17.6167,  1.3104
   17.6333,  1.3092
   17.6500,  1.3083
   17.6667,  1.3071
   17.6833,  1.3059
   17.7000,  1.3048
   17.7167,  1.3040
   17.7333,  1.3038
   17.7500,  1.3027
   17.7667,  1.3012
   17.7833,  1.3009
   17.8000,  1.3000
   17.8167,  1.2993
   17.8333,  1.2997
   17.8500,  1.2997
   17.8667,  1.2992
   17.8833,  1.2982
   17.9000,  1.2973
   17.9167,  1.2972
   17.9333,  1.2971
   17.9500,  1.2965
   17.9667,  1.2956
   17.9833,  1.2943
   18.0000,  1.2939
   18.0167,  1.2941
   18.0333,  1.2940
   18.0500,  1.2935
   18.0667,  1.2931
   18.0833,  1.2927
   18.1000,  1.2921
   18.1167,  1.2917
   18.1333,  1.2918
   18.1500,  1.2924
   18.1667,  1.2917
   18.1833,  1.2914
   18.2000,  1.2922
   18.2167,  1.2924
   18.2333,  1.2923
   18.2500,  1.2929
   18.2667,  1.2933
   18.2833,  1.2922
   18.3000,  1.2909
   18.3167,  1.2907
   18.3333,  1.2917
   18.3500,  1.2912
   18.3667,  1.2909
   18.3833,  1.2920
   18.4000,  1.2923
   18.4167,  1.2920
   18.4333,  1.2922
   18.4500,  1.2931
   18.4667,  1.2934
   18.4833,  1.2931
   18.5000,  1.2929
   18.5167,  1.2926
   18.5333,  1.2931
   18.5500,  1.2928
   18.5667,  1.2929
   18.5833,  1.2932
   18.6000,  1.2918
   18.6167,  1.2911
   18.6333,  1.2926
   18.6500,  1.2937
   18.6667,  1.2932
   18.6833,  1.2925
   18.7000,  1.2915
   18.7167,  1.2909
   18.7333,  1.2906
   18.7500,  1.2908
   18.7667,  1.2913
   18.7833,  1.2915
   18.8000,  1.2904
   18.8167,  1.2901
   18.8333,  1.2901
   18.8500,  1.2893
   18.8667,  1.2896
   18.8833,  1.2904
   18.9000,  1.2908
   18.9167,  1.2908
   18.9333,  1.2909
   18.9500,  1.2907
   18.9667,  1.2909
   18.9833,  1.2911
   19.0000,  1.2914
   19.0167,  1.2916
   19.0333,  1.2909
   19.0500,  1.2912
   19.0667,  1.2919
   19.0833,  1.2920
   19.1000,  1.2919
   19.1167,  1.2922
   19.1333,  1.2928
   19.1500,  1.2927
   19.1667,  1.2926
   19.1833,  1.2930
   19.2000,  1.2928
   19.2167,  1.2930
   19.2333,  1.2924
   19.2500,  1.2917
   19.2667,  1.2919
   19.2833,  1.2920
   19.3000,  1.2922
   19.3167,  1.2912
   19.3333,  1.2906
   19.3500,  1.2917
   19.3667,  1.2912
   19.3833,  1.2902
   19.4000,  1.2900
   19.4167,  1.2899
   19.4333,  1.2901
   19.4500,  1.2904
   19.4667,  1.2910
   19.4833,  1.2913
   19.5000,  1.2908
   19.5167,  1.2904
   19.5333,  1.2901
   19.5500,  1.2906
   19.5667,  1.2921
   19.5833,  1.2926
   19.6000,  1.2917
   19.6167,  1.2915
   19.6333,  1.2910
   19.6500,  1.2909
   19.6667,  1.2908
   19.6833,  1.2904
   19.7000,  1.2909
   19.7167,  1.2911
   19.7333,  1.2906
   19.7500,  1.2908
   19.7667,  1.2909
   19.7833,  1.2906
   19.8000,  1.2912
   19.8167,  1.2913
   19.8333,  1.2918
   19.8500,  1.2917
   19.8667,  1.2913
   19.8833,  1.2911
   19.9000,  1.2903
   19.9167,  1.2901
   19.9333,  1.2902
   19.9500,  1.2897
   19.9667,  1.2897
   19.9833,  1.2894
   20.0000,  1.2892
   20.0167,  1.2896
   20.0333,  1.2900
   20.0500,  1.2900
   20.0667,  1.2899
   20.0833,  1.2900
   20.1000,  1.2896
   20.1167,  1.2904
   20.1333,  1.2911
   20.1500,  1.2904
   20.1667,  1.2909
   20.1833,  1.2908
   20.2000,  1.2893
   20.2167,  1.2899
   20.2333,  1.2904
   20.2500,  1.2903
   20.2667,  1.2905
   20.2833,  1.2908
   20.3000,  1.2911
   20.3167,  1.2922
   20.3333,  1.2917
   20.3500,  1.2910
   20.3667,  1.2911
   20.3833,  1.2905
   20.4000,  1.2910
   20.4167,  1.2913
   20.4333,  1.2906
   20.4500,  1.2902
   20.4667,  1.2902
   20.4833,  1.2904
   20.5000,  1.2903
   20.5167,  1.2905
   20.5333,  1.2912
   20.5500,  1.2915
   20.5667,  1.2910
   20.5833,  1.2910
   20.6000,  1.2911
   20.6167,  1.2911
   20.6333,  1.2910
   20.6500,  1.2905
   20.6667,  1.2904
   20.6833,  1.2898
   20.7000,  1.2897
   20.7167,  1.2902
   20.7333,  1.2905
   20.7500,  1.2912
   20.7667,  1.2913
   20.7833,  1.2907
   20.8000,  1.2902
   20.8167,  1.2898
   20.8333,  1.2896
   20.8500,  1.2897
   20.8667,  1.2900
   20.8833,  1.2901
   20.9000,  1.2897
   20.9167,  1.2894
   20.9333,  1.2903
   20.9500,  1.2908
   20.9667,  1.2905
   20.9833,  1.2906
   21.0000,  1.2909
   21.0167,  1.2908
   21.0333,  1.2906
   21.0500,  1.2902
   21.0667,  1.2896
   21.0833,  1.2899
   21.1000,  1.2899
   21.1167,  1.2900
   21.1333,  1.2903
   21.1500,  1.2900
   21.1667,  1.2893
   21.1833,  1.2884
   21.2000,  1.2878
   21.2167,  1.2882
   21.2333,  1.2882
   21.2500,  1.2881
   21.2667,  1.2878
   21.2833,  1.2883
   21.3000,  1.2887
   21.3167,  1.2885
   21.3333,  1.2891
   21.3500,  1.2894
   21.3667,  1.2902
   21.3833,  1.2902
   21.4000,  1.2900
   21.4167,  1.2900
   21.4333,  1.2895
   21.4500,  1.2897
   21.4667,  1.2906
   21.4833,  1.2909
   21.5000,  1.2918
   21.5167,  1.2918
   21.5333,  1.2910
   21.5500,  1.2912
   21.5667,  1.2911
   21.5833,  1.2904
   21.6000,  1.2900
   21.6167,  1.2898
   21.6333,  1.2896
   21.6500,  1.2899
   21.6667,  1.2900
   21.6833,  1.2895
   21.7000,  1.2887
   21.7167,  1.2882
   21.7333,  1.2878
   21.7500,  1.2877
   21.7667,  1.2885
   21.7833,  1.2895
   21.8000,  1.2899
   21.8167,  1.2903
   21.8333,  1.2906
   21.8500,  1.2903
   21.8667,  1.2904
   21.8833,  1.2912
   21.9000,  1.2913
   21.9167,  1.2909
   21.9333,  1.2905
   21.9500,  1.2909
   21.9667,  1.2908
   21.9833,  1.2895
   22.0000,  1.2896
   22.0167,  1.2901
   22.0333,  1.2904
   22.0500,  1.2907
   22.0667,  1.2900
   22.0833,  1.2899
   22.1000,  1.2907
   22.1167,  1.2909
   22.1333,  1.2906
   22.1500,  1.2894
   22.1667,  1.2885
   22.1833,  1.2884
   22.2000,  1.2891
   22.2167,  1.2896
   22.2333,  1.2896
   22.2500,  1.2900
   22.2667,  1.2902
   22.2833,  1.2902
   22.3000,  1.2896
   22.3167,  1.2890
   22.3333,  1.2890
   22.3500,  1.2900
   22.3667,  1.2900
   22.3833,  1.2901
   22.4000,  1.2900
   22.4167,  1.2900
   22.4333,  1.2904
   22.4500,  1.2902
   22.4667,  1.2901
   22.4833,  1.2909
   22.5000,  1.2908
   22.5167,  1.2901
   22.5333,  1.2899
   22.5500,  1.2900
   22.5667,  1.2908
   22.5833,  1.2913
   22.6000,  1.2910
   22.6167,  1.2912
   22.6333,  1.2917
   22.6500,  1.2907
   22.6667,  1.2899
   22.6833,  1.2898
   22.7000,  1.2900
   22.7167,  1.2902
   22.7333,  1.2901
   22.7500,  1.2900
   22.7667,  1.2901
   22.7833,  1.2904
   22.8000,  1.2898
   22.8167,  1.2889
   22.8333,  1.2884
   22.8500,  1.2886
   22.8667,  1.2889
   22.8833,  1.2887
   22.9000,  1.2888
   22.9167,  1.2888
   22.9333,  1.2887
   22.9500,  1.2891
   22.9667,  1.2890
   22.9833,  1.2887
   23.0000,  1.2888
   23.0167,  1.2896
   23.0333,  1.2907
   23.0500,  1.2904
   23.0667,  1.2898
   23.0833,  1.2900
   23.1000,  1.2904
   23.1167,  1.2906
   23.1333,  1.2900
   23.1500,  1.2899
   23.1667,  1.2902
   23.1833,  1.2904
   23.2000,  1.2902
   23.2167,  1.2896
   23.2333,  1.2893
   23.2500,  1.2896
   23.2667,  1.2903
   23.2833,  1.2904
   23.3000,  1.2897
   23.3167,  1.2887
   23.3333,  1.2884
   23.3500,  1.2884
   23.3667,  1.2888
   23.3833,  1.2884
   23.4000,  1.2876
   23.4167,  1.2883
   23.4333,  1.2895
   23.4500,  1.2896
   23.4667,  1.2896
   23.4833,  1.2900
   23.5000,  1.2901
   23.5167,  1.2897
   23.5333,  1.2897
   23.5500,  1.2896
   23.5667,  1.2890
   23.5833,  1.2900
   23.6000,  1.2905
   23.6167,  1.2899
   23.6333,  1.2897
   23.6500,  1.2903
   23.6667,  1.2907
   23.6833,  1.2904
   23.7000,  1.2904
Min Normalized Response,  1.2611
Max Normalized Response, 16.5111
