Wavelength	Absorbance	Wavelength	Absorbance
nm		nm	
626.5	0.16953	645.3	0.12716
627.1	0.16675	646.5	0.12369
628	0.16428	647.1	0.1217
629.1	0.16031	648.2	0.11838
630	0.15833	650	0.11444
630.6	0.15735	651.5	0.11182
631.5	0.15637	652.9	0.10963
632.4	0.154	654.4	0.10782
633.9	0.15127	657	0.10378
635.4	0.14797	659.1	0.10189
636.8	0.14622	660.9	0.10072
638	0.14475	662.6	0.09945
639.8	0.14159	663.2	0.09916
641	0.13912	664.1	0.09847
642.5	0.1372	665.6	0.09699
644	0.13455	666.7	0.09601
645.4	0.13323	667.9	0.09525
646.9	0.13177	668.8	0.09501
649	0.12975	670.6	0.09456
650.2	0.12909	672.7	0.09459
652.3	0.12711	673.2	0.0941
654.1	0.12644	674.7	0.09412
655.6	0.12551	677.1	0.09418
657	0.12393	678.9	0.09445
658.8	0.12356	680.4	0.09461
660.9	0.12291	682.2	0.09472
662.1	0.12241	682.7	0.09522
663.3	0.1224	686.8	0.0952
664.8	0.1222	689.4	0.09578
666	0.12123	693	0.09757
667.2	0.12129	696.3	0.09901
668.1	0.12106	700.7	0.10015
668.7	0.12074	705.5	0.10227
670.7	0.12084	710	0.10445
672.5	0.12138	713.8	0.10657
674.3	0.12192	718	0.10833
676.1	0.12196	721.6	0.11082
677.6	0.1222	725.7	0.1135
679.1	0.1227	729	0.11646
680.9	0.12307	733.2	0.11968
681.8	0.12359	737.9	0.12283
683.3	0.12387	740.3	0.12491
686	0.12468	745.1	0.12806
686.9	0.1252	751	0.13274
688.7	0.12524	755.2	0.13588
690.2	0.12615	758.5	0.13848
692.6	0.12683	763.2	0.14262
694	0.12786	768	0.14677
694.9	0.12838	772.8	0.15092
696.4	0.12941	777.8	0.15558
698.2	0.12989	782.3	0.15972
700.3	0.13099	785.9	0.16383
701.8	0.13061	789.7	0.16744
703.3	0.13156	793.9	0.17107
705.4	0.13305	798.4	0.1759
707.5	0.13515	803.1	0.17986
709.3	0.13619	808.2	0.18352
710.8	0.13722	810.6	0.18559
712.3	0.13775	813.6	0.18905
714.1	0.13879	819.5	0.19387
716.5	0.13984	824	0.19812
717.4	0.14086	828.1	0.20241
719.5	0.14241	832	0.20576
721	0.14394	834.7	0.20804
721.1	0.14401	837.1	0.21002
722.6	0.14506	840.6	0.21284
724.1	0.14661	843.3	0.21482
726.4	0.14893	846.3	0.21746
728.8	0.15162	850.2	0.22102
730.6	0.15382	852.8	0.22325
732.7	0.15539	854.9	0.22523
733.6	0.15642	857.3	0.22722
735.1	0.15797	860.9	0.22969
737.7	0.16105	863	0.23068
739.5	0.16261	867.4	0.23415
741	0.16416	872.2	0.23718
741.9	0.16519	873.4	0.23783
743.7	0.16675	874.3	0.23894
746.4	0.16934	877.8	0.24107
748.5	0.17091	881.4	0.24327
751.1	0.173	883.8	0.24516
753.2	0.17457	885.6	0.2463
754.1	0.17559	890.3	0.24899
754.7	0.17611	893.3	0.25063
755.6	0.17714	896	0.25234
756.5	0.17767	900.5	0.25442
758	0.17922	906.1	0.25655
759.5	0.18077	909.4	0.2583
760.7	0.18231	912.9	0.26034
761.2	0.18333	917.4	0.26245
763	0.18439	920.7	0.26354
765.1	0.18695	924.5	0.26527
766.9	0.1882	929.9	0.26574
769	0.19008	932.8	0.26722
771.1	0.19215	936.4	0.2687
773.4	0.19423	939.4	0.26918
775.2	0.19717	940.6	0.26967
776.7	0.199	941.5	0.27017
778.2	0.20138	943.2	0.27066
779.7	0.20343	944.4	0.27165
780.9	0.20547	946.2	0.27263
782.1	0.2075	947.1	0.27313
783	0.20903	948	0.27362
784.7	0.21158	949.2	0.27411
786.5	0.21364	950.4	0.27461
788	0.21619	951.9	0.2751
788.9	0.21722	952.5	0.27609
789.8	0.21875	953.3	0.27709
791.9	0.22098	953.9	0.27758
794.6	0.2244	954.8	0.27857
795.1	0.22541	956.6	0.28006
796	0.22694	958.1	0.28115
797.2	0.22842	959.3	0.28204
799.6	0.23156	960.8	0.28323
802.3	0.23514	962.8	0.28298
802.9	0.23566	964	0.28282
805.5	0.23825	965.8	0.28201
807.3	0.24081	966.7	0.28051
810	0.24389	967.6	0.28
812.6	0.24768	969.4	0.27903
816.5	0.25261	970.6	0.27819
818.8	0.25518	971.5	0.2778
820.9	0.25894	972.9	0.27698
823.3	0.26213	974.4	0.27667
827.4	0.26858	977.1	0.27601
829.8	0.27153	980.4	0.27585
832.1	0.27411	983.3	0.2757
833.3	0.27615	987.2	0.27491
835.4	0.27911	989	0.27457
836.6	0.28067	993.1	0.27511
839.5	0.28415	998.2	0.27514
840.4	0.28565	999.1	0.27473
841.3	0.28614	1001.5	0.27433
843.4	0.28863	1008	0.27326
844.8	0.29112	1011.6	0.27278
845.7	0.29218	1015.1	0.27127
848.7	0.29604	1019.6	0.27083
851.3	0.29918	1021.7	0.27067
853.4	0.30107	1024.9	0.26972
855.8	0.30405	1029.7	0.26855
858.1	0.30654	1033.2	0.26817
861.4	0.31002	1036.8	0.26666
864.1	0.3135	1041.6	0.26513
865.5	0.31549	1043.6	0.26462
867.6	0.31798	1049.3	0.26359
869.7	0.31997	1057	0.26105
871.4	0.32246	1062.9	0.2586
873.8	0.32472	1070.1	0.25649
875.9	0.32693	1076.9	0.25335
877.9	0.32892	1082.8	0.25093
878.5	0.32942	1087.6	0.24841
880.9	0.33197	1091.5	0.24689
883.9	0.33452	1095.9	0.24474
885.6	0.33665	1100.7	0.24332
888.3	0.33887	1105.4	0.24083
890.1	0.34036	1109.9	0.2388
891.8	0.34289	1114.3	0.23643
893.9	0.34505	1120.3	0.23371
896	0.34721	1125.3	0.23074
899.2	0.3508	1129.5	0.22772
901.6	0.35329	1134.2	0.22507
903.4	0.35478	1138.4	0.22268
906.3	0.35744	1143.1	0.21977
909.6	0.3602	1146.7	0.21765
911.9	0.36124	1151.2	0.21563
914.3	0.36273	1156.5	0.2131
914.9	0.36327	1161.8	0.21058
915.8	0.36396	1166.9	0.20756
916.7	0.36515	1172.2	0.20453
917.9	0.36601	1176.7	0.20201
920.5	0.36742	1178.5	0.201
921.7	0.36805	1183.8	0.19878
923.5	0.36968	1189.2	0.19595
924.7	0.37068	1196.3	0.19192
927.6	0.37266	1202.6	0.18836
930.6	0.37465	1205.3	0.18641
932.9	0.37614	1208.3	0.18487
935	0.37713	1212.8	0.18185
936.8	0.37862	1218.8	0.17903
939.7	0.38011	1222.7	0.17724
941.8	0.3816	1227.2	0.17478
944.2	0.38259	1231.7	0.17176
946	0.38358	1235.9	0.16974
947.7	0.38507	1239.5	0.16773
948.9	0.38606	1244.6	0.1647
949.8	0.38706	1248.8	0.16309
951.3	0.38755	1253	0.16114
951.9	0.38805	1257.8	0.15865
953.4	0.38904	1262.6	0.15563
955.4	0.39053	1267.7	0.1526
957.5	0.39102	1272.2	0.1507
958.4	0.39172	1277.3	0.14854
959.3	0.39251	1280.9	0.14704
961	0.39323	1283.3	0.14603
961.6	0.39381	1286.3	0.14497
963.4	0.3936	1289.9	0.14303
965.8	0.39399	1294.4	0.14148
968.1	0.39399	1297.7	0.13996
971.1	0.39374	1302.9	0.13894
972.9	0.39397	1308	0.13641
975.8	0.39385	1312.8	0.13502
977.3	0.39403	1317.3	0.13337
979.4	0.39425	1322.1	0.13165
980.9	0.39392	1325.1	0.12933
982	0.39455	1329.6	0.12688
983.8	0.39478	1335.6	0.12474
985.3	0.39494	1341.6	0.12244
988.3	0.39498	1347	0.12038
989.7	0.3952	1350.3	0.11911
992.1	0.39603	1354.5	0.11693
994.8	0.39632	1359.6	0.11467
998.3	0.39719	1364.7	0.11315
1001.6	0.39738	1369.2	0.11212
1004	0.39746	1372.8	0.1116
1005.5	0.39759	1377.3	0.11108
1006.7	0.3977	1379.7	0.11157
1008.8	0.39749	1381.5	0.11206
1010.3	0.39736	1383.3	0.11259
1012.1	0.39685	1384.2	0.11367
1014.2	0.39685	1385.4	0.11577
1015.4	0.39634	1386	0.11732
1016.9	0.39599	1386.3	0.11835
1019	0.39582	1386.6	0.11937
1021.7	0.39626	1386.9	0.12089
1023.2	0.39632	1387.2	0.12292
1023.8	0.39582	1387.8	0.12497
1026.2	0.39584	1388.7	0.12848
1028.9	0.39559	1389	0.13098
1031.6	0.3953	1389.3	0.13247
1033.7	0.39429	1389.6	0.13497
1035.2	0.39429	1389.9	0.13846
1036.4	0.39379	1390.2	0.14344
1039.1	0.39278	1390.8	0.14743
1040.6	0.39277	1391.1	0.15092
1043	0.39227	1391.4	0.15641
1043.9	0.39177	1392	0.15841
1046.6	0.39126	1392.3	0.1619
1049.1	0.39025	1392.6	0.16539
1051.5	0.38975	1392.9	0.16988
1054.8	0.38924	1393.2	0.17337
1057.5	0.38773	1393.8	0.1799
1060.8	0.38641	1394.2	0.18894
1063.2	0.38533	1394.5	0.19297
1065.6	0.38458	1394.8	0.19849
1069.2	0.38321	1395.1	0.215
1071.3	0.3817	1395.4	0.21903
1073.7	0.3812	1395.7	0.22306
1076.4	0.38047	1396	0.23158
1079.1	0.37919	1396.3	0.23411
1083.6	0.37767	1396.6	0.24313
1086.9	0.37617	1396.9	0.25116
1089.9	0.37416	1397.2	0.26018
1091.7	0.37366	1397.8	0.27215
1092	0.37166	1398.4	0.27863
1092.9	0.3712	1398.7	0.28861
1093.8	0.3708	1399.3	0.29959
1096.8	0.37012	1399.6	0.30757
1098.9	0.36939	1399.9	0.31106
1100.1	0.36904	1400.2	0.31405
1102.8	0.36764	1400.5	0.31655
1105.2	0.36564	1400.8	0.32004
1107.9	0.36391	1401.1	0.32802
1111.2	0.36163	1401.4	0.33401
1113.6	0.35919	1401.7	0.337
1116.6	0.35702	1402	0.34548
1119.3	0.35541	1402.3	0.34797
1121.8	0.35412	1402.6	0.35246
1124.8	0.35149	1402.9	0.36194
1127.2	0.34961	1403.2	0.36394
1130.2	0.34815	1403.8	0.37049
1132.6	0.34684	1404.1	0.37551
1135.9	0.3446	1404.4	0.38104
1139.2	0.34209	1404.7	0.38457
1140.7	0.34059	1405	0.3896
1142.5	0.33909	1405.6	0.39367
1144	0.33839	1405.9	0.3982
1146.4	0.33708	1406.2	0.40073
1150	0.33508	1406.8	0.40779
1151.2	0.33457	1407.4	0.41232
1152.7	0.33315	1407.7	0.41731
1153.9	0.33247	1408	0.4193
1156.6	0.33107	1408.3	0.4208
1159	0.32956	1408.6	0.42379
1159.9	0.32906	1408.9	0.42479
1163.5	0.32606	1409.5	0.42578
1164.1	0.32556	1410.4	0.42478
1165.3	0.32506	1410.7	0.42378
1166.2	0.32406	1411	0.42178
1169.2	0.32205	1411.3	0.41828
1172.2	0.31955	1411.6	0.41379
1174	0.31805	1411.9	0.41229
1177	0.31554	1412.2	0.4053
1179.7	0.31354	1412.5	0.39782
1183	0.3107	1412.8	0.39582
1186.3	0.30903	1413.1	0.39283
1189.7	0.306	1413.4	0.38933
1192.7	0.30322	1413.7	0.38184
1195.4	0.30152	1414	0.37386
1198.4	0.29852	1414.3	0.36437
1202.9	0.29443	1414.9	0.35489
1205.9	0.29051	1415.2	0.34241
1209.2	0.28701	1415.5	0.33892
1211.6	0.2855	1415.8	0.33143
1214.9	0.2835	1416.1	0.32544
1218.8	0.2812	1416.4	0.31396
1221.8	0.27937	1416.7	0.30149
1226	0.27648	1417	0.29051
1230	0.27298	1417.3	0.28701
1233.3	0.27047	1417.6	0.28052
1236	0.26797	1417.9	0.27254
1238.4	0.26547	1418.2	0.26655
1240.8	0.26297	1418.5	0.25806
1241.7	0.26247	1419.1	0.25057
1242.3	0.26196	1419.4	0.24309
1242.3	0.26147	1420	0.2366
1242.9	0.26096	1420.3	0.2321
1243.5	0.26046	1420.6	0.22611
1243.8	0.26196	1420.9	0.22012
1245	0.25946	1421.2	0.21363
1245	0.26196	1421.5	0.20315
1246.2	0.25846	1421.8	0.20066
1246.5	0.26145	1422.4	0.19267
1247.4	0.26045	1422.7	0.18917
1248	0.25673	1423	0.17819
1248.9	0.25638	1423.3	0.1762
1249.2	0.25995	1423.6	0.16971
1250.1	0.25945	1424.2	0.16421
1251.3	0.25844	1424.9	0.15872
1251.3	0.25421	1425.8	0.15336
1252.5	0.25844	1426.7	0.14656
1254	0.25744	1427.3	0.1412
1254.9	0.25195	1428.2	0.13525
1255.5	0.25644	1428.8	0.13175
1257.3	0.24995	1430	0.12526
1259.8	0.24795	1430.9	0.12176
1261.3	0.24694	1431.8	0.11627
1263.1	0.24494	1433	0.11077
1265.5	0.24194	1434.2	0.10627
1267.6	0.24044	1435.7	0.10178
1269.4	0.23894	1436.6	0.09878
1272.1	0.23704	1437.8	0.09629
1275.1	0.23525	1440.2	0.09241
1277.8	0.23293	1442	0.0905
1281.1	0.23042	1443.8	0.08759
1283.5	0.22842	1445.9	0.08568
1286.5	0.2259	1448.6	0.08374
1288.6	0.22392	1452.2	0.08072
1290.1	0.22247	1456.8	0.0782
1290.8	0.22205	1460.4	0.07669
1291.7	0.22164	1463.4	0.07517
1293.8	0.22087	1466.1	0.07466
1296.2	0.2194	1470.3	0.07366
1299.2	0.21807	1473.6	0.07239
1301	0.2173	1477.8	0.07116
1304	0.21539	1481.8	0.07038
1306.4	0.21339	1485.1	0.07006
1309.7	0.21088	1486.9	0.06906
1313	0.20903	1489.9	0.06904
1315.7	0.20683	1490.5	0.06804
1319.6	0.20437	1492.9	0.06653
1323.2	0.20153	1493.5	0.06702
1326	0.19986	1498	0.0655
1329.3	0.19838	1503.4	0.06447
1333.2	0.19631	1505.3	0.06396
1335.6	0.1953	1510.1	0.06346
1337.7	0.19384	1514.6	0.06286
1340.7	0.19194	1516.1	0.06241
1342.2	0.19107	1518.8	0.06189
1343.4	0.19019	1521.5	0.06138
1347.6	0.18752	1523.6	0.06037
1349.4	0.18665	1527.5	0.05835
1351.5	0.1853	1531.8	0.05633
1353.3	0.18395	1534.8	0.05581
1355.1	0.18259	1539.9	0.05528
1358.5	0.18081	1546.5	0.05375
1360.6	0.1788	1549.2	0.05323
1364.5	0.1763	1553.4	0.0521
1366	0.1748	1559.5	0.05073
1368.4	0.17329	1564.9	0.04916
1371.4	0.17129	1570.9	0.04712
1373.8	0.16978	1576	0.0461
1375.9	0.16878	1579.3	0.04508
1378	0.16728	1580	0.04458
1380.1	0.16577	1582.4	0.04407
1381.3	0.16527	1584.5	0.04355
1382.8	0.16477	1589.6	0.04212
1384.3	0.1649	1592.9	0.0418
1385.8	0.16504	1597.7	0.04098
1386.4	0.16559	1602.9	0.03931
1387.3	0.16618	1606.2	0.0397
1388.2	0.16675	1609.5	0.039
1388.8	0.16824	1610.7	0.03856
1390	0.17023	1612.6	0.03915
1390.6	0.17123	1614.1	0.03973
1390.9	0.17222	1616.2	0.03783
1391.5	0.17472	1618	0.03838
1392.1	0.17721	1619.2	0.03887
1393	0.1797	1621.6	0.03836
1393.6	0.18272	1623.8	0.03785
1393.9	0.18525	1630.1	0.03731
1394.5	0.18782	1633.2	0.0368
1394.8	0.19035	1635.9	0.03578
1395.4	0.19492	1639.5	0.03526
1395.7	0.19695	1642.9	0.0344
1396.3	0.20102	1644.1	0.034
1396.6	0.20305	1648.6	0.03272
1397.5	0.20662	1652.9	0.03219
1398.1	0.21111	1657.4	0.03117
1398.4	0.2136	1661.3	0.03026
1399	0.21709	1665.6	0.02953
1399.6	0.22008	1669.2	0.02811
1399.9	0.22257	1673.5	0.02709
1400.5	0.22656	1678.9	0.02606
1401.1	0.23105	1681.9	0.02504
1401.4	0.23205	1684.4	0.02462
1402	0.23553	1688.9	0.02451
1402.3	0.23753	1692.9	0.02398
1402.9	0.23952	1696.5	0.02318
1403.2	0.24102	1699.5	0.023
1404.1	0.24511	1703.8	0.02293
1404.7	0.24668	1706.2	0.02241
1405.3	0.24975	1706.8	0.02191
1405.9	0.25183	1709.8	0.02189
1406.2	0.25336	1713.8	0.02187
1406.5	0.2544	1715.9	0.02136
1407.1	0.25647	1719.2	0.02084
1407.4	0.25746	1722.6	0.02049
1408	0.25896	1723.8	0.02006
1408.3	0.25996	1726.8	0.01972
1408.9	0.26045	1731	0.01976
1409.5	0.26095	1736.8	0.01925
1410.1	0.26145	1742.2	0.01881
1410.7	0.26045	1747.1	0.01869
1411	0.25895	1748	0.01856
1411.6	0.25745	1756.5	0.01805
1412.3	0.25695	1767	0.01803
1412.6	0.25446	1773.4	0.01764
1413.2	0.25196	1774.6	0.01726
1413.5	0.24647	1777.9	0.01704
1413.8	0.24497	1784.3	0.01632
1414.4	0.24198	1785.8	0.01588
1414.7	0.23699	1794.2	0.01523
1415	0.23499	1803	0.0151
1415.3	0.2315	1808	0.01485
1415.9	0.22901	1815.8	0.01579
1416.2	0.22701	1821.8	0.01565
1416.8	0.22152	1823.8	0.01527
1417.1	0.21953	1831.3	0.01592
1417.4	0.21603	1834.9	0.01641
1417.7	0.21404	1846.5	0.01589
1418	0.21055	1848	0.01539
1418.3	0.20805	1848.9	0.01489
1418.6	0.20506	1850.4	0.01448
1419.2	0.20156	1852.2	0.01408
1419.8	0.19757	1854.6	0.01323
1420.1	0.19508	1855.5	0.01278
1420.4	0.19358	1856.1	0.01331
1420.7	0.19158	1857.3	0.01239
1421.3	0.18809	1864.2	0.01226
1421.9	0.18609	1874	0.01235
1422.2	0.1816	1883	0.01119
1423.2	0.17711	1886.8	0.01083
1423.5	0.17611	1897	0.01081
1424.1	0.17262	1898.5	0.0103
1425	0.16863	1903	0.0098
1426.2	0.16535	1904.2	0.0103
1426.5	0.16392	1908.9	0.01025
1427.1	0.16205	1914.3	0.00978
1427.7	0.15964	1918.8	0.00897
1428.3	0.15665	1925.7	0.00876
1428.9	0.15465	1932.2	0.00775
1429.8	0.15165	1934.9	0.0073
1430.7	0.14916	1941.5	0.00624
1431	0.14766	1948	0.00612
1432.2	0.14516	1952.5	0.0061
1433.4	0.14316	1960	0.0057
1434.6	0.14116	1967.4	0.00568
1436.1	0.13966	1974.6	0.0052
1437.6	0.13767	1983	0.00523
1439.4	0.13577	1985.1	0.00485
1441.6	0.13387	1995.5	0.00464
1443.4	0.13247	1997.9	0.00414
1445.8	0.13058	2007.8	0.00333
1448.5	0.12865	2010.5	0.00297
1451.5	0.12665	2022.8	0.0041
1452.4	0.12565	2033.6	0.00408
1454.8	0.12414	2043.8	0.00406
1456.9	0.12264	2048	0.00495
1459.6	0.12064	2057	0.00453
1463.3	0.11863		
1466	0.11712		
1467.8	0.11612		
1470.2	0.11463		
1471.4	0.11472		
1474.1	0.11391		
1476.2	0.11356		
1478	0.11267		
1478.9	0.11172		
1481	0.11085		
1483.1	0.11047		
1483.7	0.11		
1484.9	0.10957		
1486.5	0.10858		
1488.3	0.10708		
1491	0.10558		
1493.1	0.10507		
1494.6	0.10407		
1497	0.10256		
1500.3	0.10155		
1502.4	0.10105		
1505.2	0.10004		
1507.6	0.09904		
1511.9	0.09721		
1514.6	0.09596		
1517.6	0.09501		
1520.4	0.09401		
1524	0.0925		
1527.4	0.09099		
1530.1	0.08998		
1533.2	0.08898		
1535.6	0.08797		
1536.2	0.08697		
1537.4	0.08697		
1540.8	0.08596		
1544.7	0.08495		
1547.4	0.08294		
1549.3	0.08244		
1552	0.08218		
1555	0.08142		
1557.2	0.08042		
1562.6	0.07929		
1566.9	0.07839		
1569.3	0.07689		
1572.7	0.07538		
1574.5	0.07488		
1574.8	0.07388		
1577.8	0.07337		
1579.1	0.07337		
1582.4	0.07186		
1585.4	0.07035		
1588.8	0.06988		
1590.9	0.06951		
1594.6	0.06922		
1598.2	0.06831		
1601.9	0.06803		
1603.7	0.06775		
1604.6	0.06686		
1609.5	0.06436		
1610.1	0.0639		
1612.8	0.06304		
1614.3	0.06312		
1616.8	0.06225		
1619.2	0.06127		
1622.5	0.06026		
1626.8	0.05925		
1627.7	0.05825		
1630.4	0.05774		
1634.4	0.05623		
1637.7	0.05622		
1640.2	0.05521		
1644.4	0.05448		
1645.3	0.05406		
1646.6	0.05366		
1648.7	0.05319		
1651.7	0.05268		
1653.2	0.05218		
1656.9	0.05167		
1659.3	0.05116		
1660.5	0.05072		
1661.8	0.0503		
1665.1	0.05001		
1668.1	0.04964		
1670.6	0.04863		
1672.7	0.04862		
1674.2	0.04812		
1677.6	0.04711		
1680.3	0.0461		
1683.3	0.0451		
1687	0.04443		
1688.2	0.04404		
1689.7	0.04408		
1691.2	0.04308		
1694.9	0.0421		
1697.3	0.04186		
1699.8	0.04115		
1701	0.04131		
1703.7	0.04104		
1708	0.04003		
1709.6	0.03955		
1713.1	0.0391		
1717.3	0.03915		
1719.1	0.03867		
1723.5	0.03795		
1727.1	0.03721		
1731.3	0.03633		
1735.4	0.03589		
1739	0.03493		
1742.3	0.03408		
1745.9	0.03352		
1748.2	0.03305		
1750	0.03307		
1752.7	0.03261		
1755.1	0.03264		
1759	0.03219		
1761.6	0.03172		
1764.6	0.03076		
1767.3	0.0298		
1770.3	0.02884		
1773.8	0.02904		
1777.1	0.02791		
1778.9	0.02802		
1782.8	0.02774		
1784.8	0.02786		
1789	0.0276		
1791.1	0.02671		
1792.3	0.02678		
1793.8	0.02686		
1796.1	0.02649		
1798.2	0.0261		
1800.3	0.02522		
1802.1	0.02483		
1808	0.02471		
1812.8	0.02405		
1818.8	0.02349		
1824.1	0.02338		
1829.2	0.02259		
1834.2	0.02216		
1836.9	0.02219		
1839.3	0.02172		
1844.6	0.02129		
1848.8	0.02034		
1855	0.0198		
1860.1	0.01866		
1866	0.01806		
1869.6	0.01791		
1875.6	0.01669		
1879.1	0.01627		
1883.9	0.01673		
1888.1	0.01585		
1890.4	0.01588		
1895.8	0.01545		
1901.1	0.01452		
1906.2	0.01478		
1911.6	0.01465		
1916.1	0.01371		
1920.8	0.01362		
1926.8	0.01234		
1931.3	0.0124		
1935.7	0.01207		
1940.2	0.01143		
1944.1	0.01123		
1950.1	0.01119		
1954.2	0.01069		
1962.3	0.0104		
1967.1	0.01032		
1973	0.00993		
1978.4	0.00977		
1984.7	0.00874		
1990.6	0.00815		
1997.5	0.00724		
2000.8	0.00728		
2008.2	0.0066		
2014.5	0.00667		
2018.7	0.00685		
2023.7	0.00658		
2028.2	0.00564		
2033.6	0.0052		
2037.4	0.00525		
2042.2	0.00481		
2047.6	0.00525		
2053.2	0.00495		
2058	0.00501		
2063.4	0.00482		
2067.6	0.00413		
2071.4	0.00444		
2074.7	0.0052		
2077.4	0.00538		
2079.8	0.00555		
2081.6	0.00517		
